%% Corning EDF # 122-2650-103 (corning_type1)
clear
param.type = 'corning_type1';
param.core_radius = 1.64e-6; % m
param.Er_radius	= 1.38e-6; % m
param.Er_ion_ensity	= 5.51E+18; % ions/cm^3a
param.background_loss = 6.61; % dB/km
param.NA = 0.23;
param.metastable_lifetime = 10e-3; % s
param.saturation_factor	= 3.50E+15; % 1/s-m

%% Coefficients at pump wavelength
% Wavelength (nm)	alpha (dB/m)	g*  (dB/m)
param.pump_coeff = [940.0	0.071	0
            940.1	0.070	0
            940.2	0.066	0
            940.3	0.071	0
            940.4	0.067	0
            940.5	0.076	0
            940.6	0.073	0
            940.7	0.072	0
            940.8	0.073	0
            940.9	0.076	0
            941.0	0.074	0
            941.1	0.072	0
            941.2	0.076	0
            941.3	0.080	0
            941.4	0.079	0
            941.5	0.083	0
            941.6	0.078	0
            941.7	0.080	0
            941.8	0.081	0
            941.9	0.080	0
            942.0	0.081	0
            942.1	0.080	0
            942.2	0.083	0
            942.3	0.082	0
            942.4	0.081	0
            942.5	0.085	0
            942.6	0.085	0
            942.7	0.090	0
            942.8	0.090	0
            942.9	0.085	0
            943.0	0.091	0
            943.1	0.092	0
            943.2	0.092	0
            943.3	0.090	0
            943.4	0.096	0
            943.5	0.096	0
            943.6	0.095	0
            943.7	0.102	0
            943.8	0.102	0
            943.9	0.098	0
            944.0	0.098	0
            944.1	0.104	0
            944.2	0.101	0
            944.3	0.106	0
            944.4	0.104	0
            944.5	0.108	0
            944.6	0.108	0
            944.7	0.109	0
            944.8	0.109	0
            944.9	0.108	0
            945.0	0.109	0
            945.1	0.112	0
            945.2	0.111	0
            945.3	0.113	0
            945.4	0.115	0
            945.5	0.115	0
            945.6	0.121	0
            945.7	0.121	0
            945.8	0.125	0
            945.9	0.126	0
            946.0	0.128	0
            946.1	0.128	0
            946.2	0.129	0
            946.3	0.133	0
            946.4	0.135	0
            946.5	0.136	0
            946.6	0.134	0
            946.7	0.141	0
            946.8	0.144	0
            946.9	0.143	0
            947.0	0.142	0
            947.1	0.146	0
            947.2	0.148	0
            947.3	0.148	0
            947.4	0.148	0
            947.5	0.152	0
            947.6	0.153	0
            947.7	0.156	0
            947.8	0.160	0
            947.9	0.161	0
            948.0	0.165	0
            948.1	0.166	0
            948.2	0.171	0
            948.3	0.172	0
            948.4	0.176	0
            948.5	0.178	0
            948.6	0.180	0
            948.7	0.185	0
            948.8	0.188	0
            948.9	0.190	0
            949.0	0.193	0
            949.1	0.196	0
            949.2	0.201	0
            949.3	0.204	0
            949.4	0.207	0
            949.5	0.207	0
            949.6	0.212	0
            949.7	0.215	0
            949.8	0.218	0
            949.9	0.221	0
            950.0	0.223	0
            950.1	0.228	0
            950.2	0.230	0
            950.3	0.234	0
            950.4	0.236	0
            950.5	0.241	0
            950.6	0.245	0
            950.7	0.248	0
            950.8	0.252	0
            950.9	0.257	0
            951.0	0.262	0
            951.1	0.266	0
            951.2	0.271	0
            951.3	0.277	0
            951.4	0.283	0
            951.5	0.288	0
            951.6	0.294	0
            951.7	0.298	0
            951.8	0.306	0
            951.9	0.310	0
            952.0	0.317	0
            952.1	0.322	0
            952.2	0.325	0
            952.3	0.332	0
            952.4	0.338	0
            952.5	0.344	0
            952.6	0.350	0
            952.7	0.356	0
            952.8	0.363	0
            952.9	0.369	0
            953.0	0.377	0
            953.1	0.382	0
            953.2	0.387	0
            953.3	0.395	0
            953.4	0.402	0
            953.5	0.408	0
            953.6	0.420	0
            953.7	0.428	0
            953.8	0.434	0
            953.9	0.443	0
            954.0	0.452	0
            954.1	0.459	0
            954.2	0.470	0
            954.3	0.477	0
            954.4	0.488	0
            954.5	0.496	0
            954.6	0.505	0
            954.7	0.520	0
            954.8	0.526	0
            954.9	0.537	0
            955.0	0.546	0
            955.1	0.554	0
            955.2	0.562	0
            955.3	0.576	0
            955.4	0.582	0
            955.5	0.598	0
            955.6	0.607	0
            955.7	0.614	0
            955.8	0.624	0
            955.9	0.636	0
            956.0	0.645	0
            956.1	0.655	0
            956.2	0.668	0
            956.3	0.679	0
            956.4	0.691	0
            956.5	0.702	0
            956.6	0.714	0
            956.7	0.728	0
            956.8	0.740	0
            956.9	0.750	0
            957.0	0.764	0
            957.1	0.778	0
            957.2	0.791	0
            957.3	0.805	0
            957.4	0.820	0
            957.5	0.833	0
            957.6	0.847	0
            957.7	0.861	0
            957.8	0.876	0
            957.9	0.889	0
            958.0	0.904	0
            958.1	0.920	0
            958.2	0.934	0
            958.3	0.951	0
            958.4	0.965	0
            958.5	0.980	0
            958.6	0.997	0
            958.7	1.013	0
            958.8	1.028	0
            958.9	1.041	0
            959.0	1.059	0
            959.1	1.074	0
            959.2	1.088	0
            959.3	1.104	0
            959.4	1.120	0
            959.5	1.138	0
            959.6	1.154	0
            959.7	1.172	0
            959.8	1.186	0
            959.9	1.205	0
            960.0	1.223	0
            960.1	1.241	0
            960.2	1.258	0
            960.3	1.274	0
            960.4	1.293	0
            960.5	1.312	0
            960.6	1.331	0
            960.7	1.348	0
            960.8	1.368	0
            960.9	1.386	0
            961.0	1.406	0
            961.1	1.424	0
            961.2	1.444	0
            961.3	1.462	0
            961.4	1.482	0
            961.5	1.501	0
            961.6	1.521	0
            961.7	1.541	0
            961.8	1.559	0
            961.9	1.578	0
            962.0	1.597	0
            962.1	1.616	0
            962.2	1.633	0
            962.3	1.654	0
            962.4	1.673	0
            962.5	1.693	0
            962.6	1.712	0
            962.7	1.731	0
            962.8	1.749	0
            962.9	1.769	0
            963.0	1.789	0
            963.1	1.809	0
            963.2	1.828	0
            963.3	1.847	0
            963.4	1.866	0
            963.5	1.887	0
            963.6	1.906	0
            963.7	1.925	0
            963.8	1.946	0
            963.9	1.966	0
            964.0	1.986	0
            964.1	2.005	0
            964.2	2.026	0
            964.3	2.047	0
            964.4	2.065	0
            964.5	2.085	0
            964.6	2.104	0
            964.7	2.123	0
            964.8	2.144	0
            964.9	2.162	0
            965.0	2.183	0
            965.1	2.199	0
            965.2	2.219	0
            965.3	2.239	0
            965.4	2.260	0
            965.5	2.276	0
            965.6	2.295	0
            965.7	2.314	0
            965.8	2.332	0
            965.9	2.351	0
            966.0	2.369	0
            966.1	2.387	0
            966.2	2.404	0
            966.3	2.423	0
            966.4	2.441	0
            966.5	2.458	0
            966.6	2.478	0
            966.7	2.493	0
            966.8	2.512	0
            966.9	2.531	0
            967.0	2.545	0
            967.1	2.563	0
            967.2	2.581	0
            967.3	2.598	0
            967.4	2.615	0
            967.5	2.633	0
            967.6	2.651	0
            967.7	2.670	0
            967.8	2.686	0
            967.9	2.701	0
            968.0	2.720	0
            968.1	2.737	0
            968.2	2.753	0
            968.3	2.767	0
            968.4	2.785	0
            968.5	2.802	0
            968.6	2.819	0
            968.7	2.836	0
            968.8	2.850	0
            968.9	2.868	0
            969.0	2.885	0
            969.1	2.900	0
            969.2	2.914	0
            969.3	2.931	0
            969.4	2.948	0
            969.5	2.964	0
            969.6	2.981	0
            969.7	2.996	0
            969.8	3.011	0
            969.9	3.026	0
            970.0	3.043	0
            970.1	3.057	0
            970.2	3.074	0
            970.3	3.089	0
            970.4	3.104	0
            970.5	3.121	0
            970.6	3.136	0
            970.7	3.152	0
            970.8	3.167	0
            970.9	3.182	0
            971.0	3.198	0
            971.1	3.216	0
            971.2	3.234	0
            971.3	3.251	0
            971.4	3.266	0
            971.5	3.280	0
            971.6	3.297	0
            971.7	3.316	0
            971.8	3.332	0
            971.9	3.350	0
            972.0	3.367	0
            972.1	3.383	0
            972.2	3.405	0
            972.3	3.420	0
            972.4	3.440	0
            972.5	3.459	0
            972.6	3.476	0
            972.7	3.497	0
            972.8	3.518	0
            972.9	3.537	0
            973.0	3.557	0
            973.1	3.577	0
            973.2	3.604	0
            973.3	3.620	0
            973.4	3.638	0
            973.5	3.660	0
            973.6	3.683	0
            973.7	3.705	0
            973.8	3.732	0
            973.9	3.751	0
            974.0	3.777	0
            974.1	3.796	0
            974.2	3.822	0
            974.3	3.845	0
            974.4	3.866	0
            974.5	3.892	0
            974.6	3.921	0
            974.7	3.938	0
            974.8	3.961	0
            974.9	3.984	0
            975.0	4.007	0
            975.1	4.028	0
            975.2	4.062	0
            975.3	4.076	0
            975.4	4.110	0
            975.5	4.131	0
            975.6	4.157	0
            975.7	4.178	0
            975.8	4.199	0
            975.9	4.223	0
            976.0	4.242	0
            976.1	4.263	0
            976.2	4.287	0
            976.3	4.309	0
            976.4	4.326	0
            976.5	4.354	0
            976.6	4.368	0
            976.7	4.382	0
            976.8	4.402	0
            976.9	4.421	0
            977.0	4.434	0
            977.1	4.451	0
            977.2	4.458	0
            977.3	4.480	0
            977.4	4.487	0
            977.5	4.498	0
            977.6	4.508	0
            977.7	4.513	0
            977.8	4.520	0
            977.9	4.519	0
            978.0	4.526	0
            978.1	4.529	0
            978.2	4.539	0
            978.3	4.531	0
            978.4	4.518	0
            978.5	4.524	0
            978.6	4.511	0
            978.7	4.492	0
            978.8	4.484	0
            978.9	4.473	0
            979.0	4.451	0
            979.1	4.422	0
            979.2	4.405	0
            979.3	4.379	0
            979.4	4.359	0
            979.5	4.324	0
            979.6	4.305	0
            979.7	4.277	0
            979.8	4.239	0
            979.9	4.208	0
            980.0	4.172	0
            980.1	4.140	0
            980.2	4.102	0
            980.3	4.071	0
            980.4	4.031	0
            980.5	3.993	0
            980.6	3.961	0
            980.7	3.920	0
            980.8	3.888	0
            980.9	3.850	0
            981.0	3.819	0
            981.1	3.783	0
            981.2	3.751	0
            981.3	3.714	0
            981.4	3.686	0
            981.5	3.650	0
            981.6	3.622	0
            981.7	3.593	0
            981.8	3.569	0
            981.9	3.538	0
            982.0	3.511	0
            982.1	3.487	0
            982.2	3.461	0
            982.3	3.434	0
            982.4	3.408	0
            982.5	3.386	0
            982.6	3.365	0
            982.7	3.338	0
            982.8	3.315	0
            982.9	3.296	0
            983.0	3.276	0
            983.1	3.253	0
            983.2	3.226	0
            983.3	3.207	0
            983.4	3.184	0
            983.5	3.162	0
            983.6	3.138	0
            983.7	3.111	0
            983.8	3.087	0
            983.9	3.067	0
            984.0	3.038	0
            984.1	3.012	0
            984.2	2.986	0
            984.3	2.962	0
            984.4	2.935	0
            984.5	2.909	0
            984.6	2.884	0
            984.7	2.856	0
            984.8	2.827	0
            984.9	2.797	0
            985.0	2.773	0
            985.1	2.747	0
            985.2	2.715	0
            985.3	2.690	0
            985.4	2.664	0
            985.5	2.637	0
            985.6	2.609	0
            985.7	2.581	0
            985.8	2.550	0
            985.9	2.525	0
            986.0	2.502	0
            986.1	2.471	0
            986.2	2.448	0
            986.3	2.420	0
            986.4	2.391	0
            986.5	2.366	0
            986.6	2.341	0
            986.7	2.315	0
            986.8	2.292	0
            986.9	2.269	0
            987.0	2.243	0
            987.1	2.217	0
            987.2	2.191	0
            987.3	2.168	0
            987.4	2.146	0
            987.5	2.124	0
            987.6	2.103	0
            987.7	2.086	0
            987.8	2.057	0
            987.9	2.039	0
            988.0	2.015	0
            988.1	1.996	0
            988.2	1.974	0
            988.3	1.954	0
            988.4	1.936	0
            988.5	1.918	0
            988.6	1.902	0
            988.7	1.884	0
            988.8	1.868	0
            988.9	1.851	0
            989.0	1.832	0
            989.1	1.817	0
            989.2	1.802	0
            989.3	1.785	0
            989.4	1.773	0
            989.5	1.756	0
            989.6	1.744	0
            989.7	1.726	0
            989.8	1.712	0
            989.9	1.695	0
            990.0	1.681	0
            990.1	1.672	0
            990.2	1.658	0
            990.3	1.643	0
            990.4	1.630	0
            990.5	1.619	0
            990.6	1.606	0
            990.7	1.592	0
            990.8	1.581	0
            990.9	1.568	0
            991.0	1.555	0
            991.1	1.542	0
            991.2	1.536	0
            991.3	1.523	0
            991.4	1.511	0
            991.5	1.501	0
            991.6	1.488	0
            991.7	1.477	0
            991.8	1.469	0
            991.9	1.453	0
            992.0	1.445	0
            992.1	1.432	0
            992.2	1.426	0
            992.3	1.415	0
            992.4	1.404	0
            992.5	1.391	0
            992.6	1.384	0
            992.7	1.374	0
            992.8	1.366	0
            992.9	1.357	0
            993.0	1.347	0
            993.1	1.340	0
            993.2	1.332	0
            993.3	1.318	0
            993.4	1.313	0
            993.5	1.296	0
            993.6	1.298	0
            993.7	1.287	0
            993.8	1.281	0
            993.9	1.274	0
            994.0	1.258	0
            994.1	1.251	0
            994.2	1.246	0
            994.3	1.232	0
            994.4	1.219	0
            994.5	1.220	0
            994.6	1.212	0
            994.7	1.198	0
            994.8	1.193	0
            994.9	1.188	0
            995.0	1.175	0
            995.1	1.176	0
            995.2	1.165	0
            995.3	1.156	0
            995.4	1.153	0
            995.5	1.142	0
            995.6	1.123	0
            995.7	1.124	0
            995.8	1.117	0
            995.9	1.112	0
            996.0	1.098	0
            996.1	1.095	0
            996.2	1.091	0
            996.3	1.078	0
            996.4	1.074	0
            996.5	1.063	0
            996.6	1.047	0
            996.7	1.040	0
            996.8	1.035	0
            996.9	1.032	0
            997.0	1.015	0
            997.1	1.026	0
            997.2	1.012	0
            997.3	0.996	0
            997.4	0.999	0
            997.5	0.983	0
            997.6	0.974	0
            997.7	0.978	0
            997.8	0.971	0
            997.9	0.969	0
            998.0	0.955	0
            998.1	0.940	0
            998.2	0.937	0
            998.3	0.928	0
            998.4	0.913	0
            998.5	0.926	0
            998.6	0.905	0
            998.7	0.897	0
            998.8	0.890	0
            998.9	0.876	0
            999.0	0.881	0
            999.1	0.864	0
            999.2	0.868	0
            999.3	0.857	0
            999.4	0.849	0
            999.5	0.851	0
            999.6	0.831	0
            999.7	0.825	0
            999.8	0.825	0
            999.9	0.802	0
            1000.0	0.801	0
            1000.1	0.809	0
            1000.2	0.803	0
            1000.3	0.791	0
            1000.4	0.798	0
            1000.5	0.786	0
            1000.6	0.796	0
            1000.7	0.760	0
            1000.8	0.760	0
            1000.9	0.740	0
            1001.0	0.749	0
            1001.1	0.759	0
            1001.2	0.730	0
            1001.3	0.747	0
            1001.4	0.730	0
            1001.5	0.727	0
            1001.6	0.708	0
            1001.7	0.711	0
            1001.8	0.697	0
            1001.9	0.703	0
            1002.0	0.694	0
            1002.1	0.692	0
            1002.2	0.698	0
            1002.3	0.667	0
            1002.4	0.673	0
            1002.5	0.666	0
            1002.6	0.654	0
            1002.7	0.664	0
            1002.8	0.648	0
            1002.9	0.632	0
            1003.0	0.625	0
            1003.1	0.645	0
            1003.2	0.615	0
            1003.3	0.630	0
            1003.4	0.630	0
            1003.5	0.633	0
            1003.6	0.608	0
            1003.7	0.588	0
            1003.8	0.577	0
            1003.9	0.614	0
            1004.0	0.580	0
            1004.1	0.564	0
            1004.2	0.570	0
            1004.3	0.577	0
            1004.4	0.569	0
            1004.5	0.555	0
            1004.6	0.578	0
            1004.7	0.548	0
            1004.8	0.558	0
            1004.9	0.545	0
            1005.0	0.522	0
            1005.1	0.541	0
            1005.2	0.534	0
            1005.3	0.505	0
            1005.4	0.514	0
            1005.5	0.507	0
            1005.6	0.526	0
            1005.7	0.517	0
            1005.8	0.515	0
            1005.9	0.501	0
            1006.0	0.510	0
            1006.1	0.488	0
            1006.2	0.467	0
            1006.3	0.508	0
            1006.4	0.449	0
            1006.5	0.465	0
            1006.6	0.452	0
            1006.7	0.457	0
            1006.8	0.434	0
            1006.9	0.425	0
            1007.0	0.448	0
            1007.1	0.421	0
            1007.2	0.438	0
            1007.3	0.430	0
            1007.4	0.409	0
            1007.5	0.394	0
            1007.6	0.411	0
            1007.7	0.399	0
            1007.8	0.394	0
            1007.9	0.361	0
            1008.0	0.392	0
            1008.1	0.423	0
            1008.2	0.370	0
            1008.3	0.381	0
            1008.4	0.379	0
            1008.5	0.361	0
            1008.6	0.359	0
            1008.7	0.385	0
            1008.8	0.368	0
            1008.9	0.366	0
            1009.0	0.341	0
            1009.1	0.316	0
            1009.2	0.327	0
            1009.3	0.374	0
            1009.4	0.348	0
            1009.5	0.333	0
            1009.6	0.333	0
            1009.7	0.357	0
            1009.8	0.372	0
            1009.9	0.289	0
            1010.0	0.292	0];
        
%% Coefficients at signal wavelength
% Wavelength (nm)	alpha (dB/m)	g*  (dB/m)
param.signal_coeff = [1465.00	2.153	0.498
                    1465.25	2.170	0.504
                    1465.50	2.181	0.510
                    1465.75	2.187	0.514
                    1466.00	2.199	0.520
                    1466.25	2.220	0.528
                    1466.50	2.251	0.538
                    1466.75	2.278	0.548
                    1467.00	2.300	0.556
                    1467.25	2.310	0.562
                    1467.50	2.316	0.566
                    1467.75	2.329	0.573
                    1468.00	2.349	0.581
                    1468.25	2.378	0.591
                    1468.50	2.405	0.601
                    1468.75	2.427	0.610
                    1469.00	2.437	0.616
                    1469.25	2.447	0.622
                    1469.50	2.459	0.629
                    1469.75	2.479	0.637
                    1470.00	2.502	0.647
                    1470.25	2.526	0.657
                    1470.50	2.550	0.667
                    1470.75	2.566	0.675
                    1471.00	2.579	0.682
                    1471.25	2.591	0.689
                    1471.50	2.602	0.696
                    1471.75	2.618	0.704
                    1472.00	2.642	0.714
                    1472.25	2.660	0.723
                    1472.50	2.681	0.733
                    1472.75	2.696	0.741
                    1473.00	2.709	0.749
                    1473.25	2.720	0.756
                    1473.50	2.731	0.763
                    1473.75	2.752	0.773
                    1474.00	2.768	0.782
                    1474.25	2.790	0.793
                    1474.50	2.812	0.804
                    1474.75	2.825	0.812
                    1475.00	2.838	0.820
                    1475.25	2.847	0.827
                    1475.50	2.856	0.834
                    1475.75	2.874	0.844
                    1476.00	2.892	0.854
                    1476.25	2.911	0.865
                    1476.50	2.928	0.875
                    1476.75	2.948	0.886
                    1477.00	2.958	0.893
                    1477.25	2.967	0.901
                    1477.50	2.980	0.910
                    1477.75	2.997	0.920
                    1478.00	3.006	0.928
                    1478.25	3.026	0.940
                    1478.50	3.044	0.950
                    1478.75	3.058	0.960
                    1479.00	3.071	0.970
                    1479.25	3.083	0.979
                    1479.50	3.094	0.988
                    1479.75	3.110	0.998
                    1480.00	3.120	1.007
                    1480.25	3.133	1.017
                    1480.50	3.145	1.026
                    1480.75	3.157	1.036
                    1481.00	3.171	1.046
                    1481.25	3.181	1.055
                    1481.50	3.195	1.066
                    1481.75	3.201	1.074
                    1482.00	3.214	1.084
                    1482.25	3.222	1.093
                    1482.50	3.231	1.102
                    1482.75	3.241	1.111
                    1483.00	3.251	1.121
                    1483.25	3.264	1.132
                    1483.50	3.273	1.141
                    1483.75	3.288	1.152
                    1484.00	3.294	1.161
                    1484.25	3.305	1.171
                    1484.50	3.313	1.180
                    1484.75	3.320	1.189
                    1485.00	3.332	1.200
                    1485.25	3.341	1.210
                    1485.50	3.347	1.219
                    1485.75	3.362	1.231
                    1486.00	3.369	1.240
                    1486.25	3.380	1.251
                    1486.50	3.386	1.260
                    1486.75	3.393	1.270
                    1487.00	3.398	1.279
                    1487.25	3.408	1.289
                    1487.50	3.417	1.300
                    1487.75	3.422	1.309
                    1488.00	3.429	1.319
                    1488.25	3.435	1.328
                    1488.50	3.443	1.339
                    1488.75	3.448	1.348
                    1489.00	3.453	1.357
                    1489.25	3.458	1.367
                    1489.50	3.469	1.378
                    1489.75	3.477	1.389
                    1490.00	3.482	1.399
                    1490.25	3.486	1.408
                    1490.50	3.493	1.418
                    1490.75	3.495	1.427
                    1491.00	3.497	1.436
                    1491.25	3.501	1.445
                    1491.50	3.507	1.455
                    1491.75	3.511	1.465
                    1492.00	3.518	1.476
                    1492.25	3.522	1.486
                    1492.50	3.527	1.495
                    1492.75	3.532	1.506
                    1493.00	3.533	1.515
                    1493.25	3.537	1.524
                    1493.50	3.538	1.533
                    1493.75	3.543	1.544
                    1494.00	3.549	1.554
                    1494.25	3.555	1.565
                    1494.50	3.557	1.575
                    1494.75	3.564	1.587
                    1495.00	3.566	1.596
                    1495.25	3.570	1.606
                    1495.50	3.572	1.616
                    1495.75	3.573	1.625
                    1496.00	3.576	1.635
                    1496.25	3.577	1.645
                    1496.50	3.580	1.655
                    1496.75	3.579	1.664
                    1497.00	3.585	1.675
                    1497.25	3.586	1.685
                    1497.50	3.591	1.696
                    1497.75	3.592	1.706
                    1498.00	3.596	1.717
                    1498.25	3.598	1.727
                    1498.50	3.600	1.738
                    1498.75	3.606	1.750
                    1499.00	3.608	1.760
                    1499.25	3.613	1.772
                    1499.50	3.612	1.781
                    1499.75	3.616	1.793
                    1500.00	3.622	1.805
                    1500.25	3.621	1.815
                    1500.50	3.626	1.827
                    1500.75	3.633	1.840
                    1501.00	3.632	1.850
                    1501.25	3.634	1.861
                    1501.50	3.641	1.874
                    1501.75	3.643	1.885
                    1502.00	3.644	1.896
                    1502.25	3.653	1.911
                    1502.50	3.653	1.921
                    1502.75	3.657	1.934
                    1503.00	3.665	1.948
                    1503.25	3.670	1.961
                    1503.50	3.675	1.974
                    1503.75	3.684	1.990
                    1504.00	3.689	2.003
                    1504.25	3.686	2.012
                    1504.50	3.688	2.024
                    1504.75	3.698	2.040
                    1505.00	3.699	2.052
                    1505.25	3.704	2.066
                    1505.50	3.709	2.079
                    1505.75	3.712	2.092
                    1506.00	3.719	2.107
                    1506.25	3.725	2.122
                    1506.50	3.732	2.138
                    1506.75	3.742	2.154
                    1507.00	3.749	2.170
                    1507.25	3.761	2.189
                    1507.50	3.769	2.205
                    1507.75	3.781	2.223
                    1508.00	3.792	2.242
                    1508.25	3.806	2.262
                    1508.50	3.817	2.281
                    1508.75	3.827	2.299
                    1509.00	3.844	2.321
                    1509.25	3.854	2.340
                    1509.50	3.865	2.359
                    1509.75	3.878	2.380
                    1510.00	3.896	2.403
                    1510.25	3.911	2.425
                    1510.50	3.927	2.448
                    1510.75	3.943	2.471
                    1511.00	3.956	2.492
                    1511.25	3.974	2.517
                    1511.50	3.992	2.542
                    1511.75	4.003	2.562
                    1512.00	4.023	2.589
                    1512.25	4.038	2.612
                    1512.50	4.056	2.638
                    1512.75	4.076	2.665
                    1513.00	4.096	2.692
                    1513.25	4.118	2.720
                    1513.50	4.138	2.748
                    1513.75	4.159	2.777
                    1514.00	4.173	2.801
                    1514.25	4.197	2.832
                    1514.50	4.218	2.861
                    1514.75	4.246	2.895
                    1515.00	4.266	2.924
                    1515.25	4.288	2.955
                    1515.50	4.313	2.988
                    1515.75	4.339	3.021
                    1516.00	4.366	3.056
                    1516.25	4.396	3.093
                    1516.50	4.425	3.130
                    1516.75	4.457	3.170
                    1517.00	4.491	3.210
                    1517.25	4.528	3.254
                    1517.50	4.563	3.296
                    1517.75	4.598	3.339
                    1518.00	4.637	3.385
                    1518.25	4.678	3.433
                    1518.50	4.720	3.482
                    1518.75	4.766	3.534
                    1519.00	4.814	3.588
                    1519.25	4.865	3.645
                    1519.50	4.919	3.705
                    1519.75	4.975	3.767
                    1520.00	5.032	3.830
                    1520.25	5.095	3.899
                    1520.50	5.158	3.967
                    1520.75	5.226	4.041
                    1521.00	5.297	4.117
                    1521.25	5.371	4.196
                    1521.50	5.444	4.276
                    1521.75	5.517	4.355
                    1522.00	5.595	4.440
                    1522.25	5.672	4.525
                    1522.50	5.753	4.613
                    1522.75	5.836	4.704
                    1523.00	5.922	4.798
                    1523.25	5.997	4.885
                    1523.50	6.082	4.979
                    1523.75	6.160	5.070
                    1524.00	6.244	5.166
                    1524.25	6.330	5.264
                    1524.50	6.403	5.352
                    1524.75	6.479	5.444
                    1525.00	6.554	5.536
                    1525.25	6.627	5.627
                    1525.50	6.689	5.709
                    1525.75	6.752	5.793
                    1526.00	6.808	5.871
                    1526.25	6.861	5.947
                    1526.50	6.906	6.017
                    1526.75	6.949	6.086
                    1527.00	6.984	6.149
                    1527.25	7.012	6.206
                    1527.50	7.041	6.263
                    1527.75	7.061	6.314
                    1528.00	7.075	6.359
                    1528.25	7.084	6.400
                    1528.50	7.083	6.432
                    1528.75	7.080	6.463
                    1529.00	7.070	6.487
                    1529.25	7.054	6.506
                    1529.50	7.033	6.520
                    1529.75	7.008	6.531
                    1530.00	6.975	6.533
                    1530.25	6.937	6.531
                    1530.50	6.892	6.522
                    1530.75	6.841	6.507
                    1531.00	6.786	6.489
                    1531.25	6.725	6.463
                    1531.50	6.657	6.431
                    1531.75	6.586	6.395
                    1532.00	6.509	6.353
                    1532.25	6.429	6.307
                    1532.50	6.343	6.255
                    1532.75	6.251	6.196
                    1533.00	6.158	6.136
                    1533.25	6.057	6.066
                    1533.50	5.957	5.996
                    1533.75	5.854	5.923
                    1534.00	5.750	5.847
                    1534.25	5.641	5.766
                    1534.50	5.534	5.686
                    1534.75	5.430	5.608
                    1535.00	5.326	5.529
                    1535.25	5.224	5.450
                    1535.50	5.128	5.378
                    1535.75	5.034	5.306
                    1536.00	4.942	5.236
                    1536.25	4.856	5.172
                    1536.50	4.777	5.113
                    1536.75	4.702	5.059
                    1537.00	4.634	5.011
                    1537.25	4.571	4.968
                    1537.50	4.512	4.930
                    1537.75	4.460	4.897
                    1538.00	4.412	4.869
                    1538.25	4.366	4.843
                    1538.50	4.330	4.827
                    1538.75	4.285	4.802
                    1539.00	4.249	4.786
                    1539.25	4.224	4.782
                    1539.50	4.195	4.774
                    1539.75	4.169	4.769
                    1540.00	4.144	4.764
                    1540.25	4.123	4.763
                    1540.50	4.101	4.762
                    1540.75	4.078	4.760
                    1541.00	4.057	4.760
                    1541.25	4.039	4.763
                    1541.50	4.022	4.767
                    1541.75	3.996	4.760
                    1542.00	3.975	4.759
                    1542.25	3.954	4.758
                    1542.50	3.932	4.755
                    1542.75	3.907	4.749
                    1543.00	3.884	4.745
                    1543.25	3.862	4.743
                    1543.50	3.836	4.734
                    1543.75	3.808	4.724
                    1544.00	3.787	4.722
                    1544.25	3.754	4.704
                    1544.50	3.724	4.690
                    1544.75	3.699	4.683
                    1545.00	3.672	4.671
                    1545.25	3.649	4.666
                    1545.50	3.617	4.648
                    1545.75	3.590	4.637
                    1546.00	3.565	4.628
                    1546.25	3.532	4.608
                    1546.50	3.506	4.598
                    1546.75	3.479	4.586
                    1547.00	3.450	4.571
                    1547.25	3.423	4.557
                    1547.50	3.396	4.544
                    1547.75	3.368	4.529
                    1548.00	3.341	4.516
                    1548.25	3.313	4.500
                    1548.50	3.286	4.486
                    1548.75	3.259	4.472
                    1549.00	3.237	4.465
                    1549.25	3.209	4.448
                    1549.50	3.187	4.440
                    1549.75	3.158	4.421
                    1550.00	3.137	4.414
                    1550.25	3.113	4.403
                    1550.50	3.090	4.392
                    1550.75	3.067	4.380
                    1551.00	3.044	4.370
                    1551.25	3.021	4.359
                    1551.50	3.000	4.350
                    1551.75	2.977	4.339
                    1552.00	2.956	4.329
                    1552.25	2.936	4.322
                    1552.50	2.918	4.317
                    1552.75	2.898	4.310
                    1553.00	2.880	4.303
                    1553.25	2.860	4.295
                    1553.50	2.844	4.293
                    1553.75	2.825	4.285
                    1554.00	2.808	4.280
                    1554.25	2.788	4.272
                    1554.50	2.769	4.263
                    1554.75	2.751	4.257
                    1555.00	2.730	4.245
                    1555.25	2.716	4.245
                    1555.50	2.695	4.233
                    1555.75	2.674	4.221
                    1556.00	2.658	4.218
                    1556.25	2.641	4.211
                    1556.50	2.621	4.200
                    1556.75	2.605	4.195
                    1557.00	2.586	4.185
                    1557.25	2.566	4.174
                    1557.50	2.545	4.161
                    1557.75	2.521	4.142
                    1558.00	2.497	4.123
                    1558.25	2.478	4.111
                    1558.50	2.454	4.092
                    1558.75	2.430	4.072
                    1559.00	2.411	4.060
                    1559.25	2.385	4.037
                    1559.50	2.367	4.027
                    1559.75	2.346	4.010
                    1560.00	2.325	3.994
                    1560.25	2.302	3.975
                    1560.50	2.274	3.946
                    1560.75	2.242	3.909
                    1561.00	2.213	3.878
                    1561.25	2.190	3.857
                    1561.50	2.168	3.836
                    1561.75	2.149	3.823
                    1562.00	2.130	3.808
                    1562.25	2.103	3.778
                    1562.50	2.072	3.741
                    1562.75	2.039	3.699
                    1563.00	2.008	3.660
                    1563.25	1.985	3.637
                    1563.50	1.961	3.610
                    1563.75	1.932	3.575
                    1564.00	1.900	3.532
                    1564.25	1.881	3.515
                    1564.50	1.850	3.473
                    1564.75	1.830	3.453
                    1565.00	1.809	3.431
                    1565.25	1.776	3.384
                    1565.50	1.739	3.330
                    1565.75	1.714	3.299
                    1566.00	1.688	3.265
                    1566.25	1.667	3.239
                    1566.50	1.634	3.192
                    1566.75	1.614	3.168
                    1567.00	1.596	3.149
                    1567.25	1.571	3.114
                    1567.50	1.545	3.078
                    1567.75	1.518	3.039
                    1568.00	1.485	2.988
                    1568.25	1.460	2.951
                    1568.50	1.440	2.924
                    1568.75	1.416	2.890
                    1569.00	1.395	2.863
                    1569.25	1.372	2.829
                    1569.50	1.349	2.796
                    1569.75	1.329	2.766
                    1570.00	1.302	2.725];

% 
param.pump_absorption_coeff_fun = @(x) spline(param.pump_coeff(:, 1), param.pump_coeff(:, 2), x);
param.pump_gain_coeff_fun = @(x) zeros(size(x));
%
param.absorption_coeff_fun = @(x) spline(param.signal_coeff(:, 1), param.signal_coeff(:, 2), x);
param.gain_coeff_fun = @(x) spline(param.signal_coeff(:, 1), param.signal_coeff(:, 3), x);

save('data_corning_type1', '-struct', 'param')