%% Corning EDF # 121-5138-201.3 (corning_high_NA)
clear
param.type = 'corning_high_NA';
param.core_radius = 0.89e-6; % m
param.Er_radius	= 0.73e-6; % m
param.Er_ion_ensity	= 9.96E+18; % ions/cm^3a
param.background_loss = 8.04; % dB/km
param.NA = 0.28;
param.metastable_lifetime = 10e-3; % s
param.saturation_factor	= 3.50E+15; % 1/s-m

%% Coefficients at pump wavelength
% Wavelength (nm)	alpha (dB/m)	g*  (dB/m)
param.pump_coeff = [940.0	0.220	0
940.1	0.220	0
940.2	0.220	0
940.3	0.220	0
940.4	0.223	0
940.5	0.223	0
940.6	0.223	0
940.7	0.227	0
940.8	0.227	0
940.9	0.227	0
941.0	0.223	0
941.1	0.227	0
941.2	0.230	0
941.3	0.227	0
941.4	0.230	0
941.5	0.230	0
941.6	0.230	0
941.7	0.230	0
941.8	0.230	0
941.9	0.234	0
942.0	0.234	0
942.1	0.234	0
942.2	0.237	0
942.3	0.237	0
942.4	0.237	0
942.5	0.237	0
942.6	0.240	0
942.7	0.240	0
942.8	0.244	0
942.9	0.244	0
943.0	0.244	0
943.1	0.244	0
943.2	0.244	0
943.3	0.247	0
943.4	0.251	0
943.5	0.251	0
943.6	0.251	0
943.7	0.254	0
943.8	0.254	0
943.9	0.254	0
944.0	0.254	0
944.1	0.254	0
944.2	0.257	0
944.3	0.257	0
944.4	0.261	0
944.5	0.257	0
944.6	0.261	0
944.7	0.261	0
944.8	0.264	0
944.9	0.264	0
945.0	0.268	0
945.1	0.271	0
945.2	0.271	0
945.3	0.271	0
945.4	0.275	0
945.5	0.275	0
945.6	0.278	0
945.7	0.281	0
945.8	0.281	0
945.9	0.288	0
946.0	0.281	0
946.1	0.292	0
946.2	0.288	0
946.3	0.292	0
946.4	0.295	0
946.5	0.295	0
946.6	0.298	0
946.7	0.302	0
946.8	0.302	0
946.9	0.305	0
947.0	0.319	0
947.1	0.309	0
947.2	0.309	0
947.3	0.309	0
947.4	0.316	0
947.5	0.319	0
947.6	0.322	0
947.7	0.322	0
947.8	0.329	0
947.9	0.333	0
948.0	0.329	0
948.1	0.336	0
948.2	0.336	0
948.3	0.343	0
948.4	0.343	0
948.5	0.346	0
948.6	0.353	0
948.7	0.356	0
948.8	0.356	0
948.9	0.360	0
949.0	0.367	0
949.1	0.367	0
949.2	0.374	0
949.3	0.377	0
949.4	0.377	0
949.5	0.380	0
949.6	0.387	0
949.7	0.387	0
949.8	0.394	0
949.9	0.394	0
950.0	0.401	0
950.1	0.404	0
950.2	0.411	0
950.3	0.415	0
950.4	0.421	0
950.5	0.425	0
950.6	0.428	0
950.7	0.435	0
950.8	0.438	0
950.9	0.445	0
951.0	0.449	0
951.1	0.452	0
951.2	0.459	0
951.3	0.466	0
951.4	0.473	0
951.5	0.479	0
951.6	0.483	0
951.7	0.490	0
951.8	0.497	0
951.9	0.503	0
952.0	0.507	0
952.1	0.517	0
952.2	0.524	0
952.3	0.527	0
952.4	0.534	0
952.5	0.541	0
952.6	0.548	0
952.7	0.555	0
952.8	0.561	0
952.9	0.572	0
953.0	0.578	0
953.1	0.585	0
953.2	0.596	0
953.3	0.602	0
953.4	0.609	0
953.5	0.619	0
953.6	0.630	0
953.7	0.637	0
953.8	0.643	0
953.9	0.654	0
954.0	0.660	0
954.1	0.671	0
954.2	0.681	0
954.3	0.691	0
954.4	0.701	0
954.5	0.712	0
954.6	0.719	0
954.7	0.732	0
954.8	0.746	0
954.9	0.756	0
955.0	0.766	0
955.1	0.777	0
955.2	0.787	0
955.3	0.797	0
955.4	0.807	0
955.5	0.821	0
955.6	0.831	0
955.7	0.845	0
955.8	0.859	0
955.9	0.865	0
956.0	0.879	0
956.1	0.889	0
956.2	0.903	0
956.3	0.917	0
956.4	0.930	0
956.5	0.944	0
956.6	0.961	0
956.7	0.971	0
956.8	0.985	0
956.9	0.999	0
957.0	1.016	0
957.1	1.029	0
957.2	1.043	0
957.3	1.057	0
957.4	1.070	0
957.5	1.087	0
957.6	1.104	0
957.7	1.122	0
957.8	1.132	0
957.9	1.152	0
958.0	1.169	0
958.1	1.186	0
958.2	1.200	0
958.3	1.217	0
958.4	1.238	0
958.5	1.251	0
958.6	1.268	0
958.7	1.285	0
958.8	1.303	0
958.9	1.323	0
959.0	1.337	0
959.1	1.354	0
959.2	1.374	0
959.3	1.395	0
959.4	1.412	0
959.5	1.429	0
959.6	1.449	0
959.7	1.466	0
959.8	1.487	0
959.9	1.507	0
960.0	1.528	0
960.1	1.545	0
960.2	1.566	0
960.3	1.586	0
960.4	1.606	0
960.5	1.627	0
960.6	1.644	0
960.7	1.665	0
960.8	1.688	0
960.9	1.712	0
961.0	1.729	0
961.1	1.750	0
961.2	1.770	0
961.3	1.794	0
961.4	1.815	0
961.5	1.839	0
961.6	1.856	0
961.7	1.880	0
961.8	1.900	0
961.9	1.924	0
962.0	1.945	0
962.1	1.969	0
962.2	1.992	0
962.3	2.013	0
962.4	2.033	0
962.5	2.054	0
962.6	2.078	0
962.7	2.102	0
962.8	2.122	0
962.9	2.146	0
963.0	2.167	0
963.1	2.191	0
963.2	2.214	0
963.3	2.235	0
963.4	2.255	0
963.5	2.279	0
963.6	2.300	0
963.7	2.327	0
963.8	2.348	0
963.9	2.368	0
964.0	2.392	0
964.1	2.416	0
964.2	2.436	0
964.3	2.457	0
964.4	2.484	0
964.5	2.505	0
964.6	2.529	0
964.7	2.549	0
964.8	2.573	0
964.9	2.597	0
965.0	2.617	0
965.1	2.638	0
965.2	2.662	0
965.3	2.682	0
965.4	2.706	0
965.5	2.727	0
965.6	2.751	0
965.7	2.771	0
965.8	2.792	0
965.9	2.816	0
966.0	2.833	0
966.1	2.856	0
966.2	2.877	0
966.3	2.897	0
966.4	2.918	0
966.5	2.942	0
966.6	2.962	0
966.7	2.983	0
966.8	3.003	0
966.9	3.024	0
967.0	3.044	0
967.1	3.065	0
967.2	3.085	0
967.3	3.106	0
967.4	3.130	0
967.5	3.150	0
967.6	3.167	0
967.7	3.188	0
967.8	3.212	0
967.9	3.229	0
968.0	3.249	0
968.1	3.270	0
968.2	3.290	0
968.3	3.311	0
968.4	3.331	0
968.5	3.352	0
968.6	3.369	0
968.7	3.389	0
968.8	3.410	0
968.9	3.427	0
969.0	3.451	0
969.1	3.471	0
969.2	3.488	0
969.3	3.505	0
969.4	3.526	0
969.5	3.550	0
969.6	3.563	0
969.7	3.587	0
969.8	3.608	0
969.9	3.625	0
970.0	3.642	0
970.1	3.666	0
970.2	3.686	0
970.3	3.707	0
970.4	3.724	0
970.5	3.744	0
970.6	3.762	0
970.7	3.782	0
970.8	3.803	0
970.9	3.823	0
971.0	3.844	0
971.1	3.864	0
971.2	3.888	0
971.3	3.905	0
971.4	3.925	0
971.5	3.946	0
971.6	3.970	0
971.7	3.990	0
971.8	4.014	0
971.9	4.035	0
972.0	4.059	0
972.1	4.079	0
972.2	4.103	0
972.3	4.127	0
972.4	4.151	0
972.5	4.175	0
972.6	4.202	0
972.7	4.229	0
972.8	4.253	0
972.9	4.281	0
973.0	4.305	0
973.1	4.332	0
973.2	4.359	0
973.3	4.387	0
973.4	4.417	0
973.5	4.445	0
973.6	4.472	0
973.7	4.503	0
973.8	4.537	0
973.9	4.568	0
974.0	4.595	0
974.1	4.626	0
974.2	4.656	0
974.3	4.691	0
974.4	4.721	0
974.5	4.759	0
974.6	4.790	0
974.7	4.824	0
974.8	4.854	0
974.9	4.889	0
975.0	4.926	0
975.1	4.957	0
975.2	4.988	0
975.3	5.018	0
975.4	5.059	0
975.5	5.090	0
975.6	5.121	0
975.7	5.158	0
975.8	5.193	0
975.9	5.230	0
976.0	5.261	0
976.1	5.288	0
976.2	5.326	0
976.3	5.367	0
976.4	5.391	0
976.5	5.425	0
976.6	5.459	0
976.7	5.483	0
976.8	5.507	0
976.9	5.531	0
977.0	5.555	0
977.1	5.589	0
977.2	5.616	0
977.3	5.619	0
977.4	5.654	0
977.5	5.671	0
977.6	5.691	0
977.7	5.708	0
977.8	5.722	0
977.9	5.729	0
978.0	5.746	0
978.1	5.732	0
978.2	5.749	0
978.3	5.763	0
978.4	5.763	0
978.5	5.746	0
978.6	5.749	0
978.7	5.732	0
978.8	5.719	0
978.9	5.698	0
979.0	5.681	0
979.1	5.667	0
979.2	5.647	0
979.3	5.613	0
979.4	5.582	0
979.5	5.551	0
979.6	5.510	0
979.7	5.473	0
979.8	5.432	0
979.9	5.377	0
980.0	5.336	0
980.1	5.298	0
980.2	5.247	0
980.3	5.199	0
980.4	5.152	0
980.5	5.100	0
980.6	5.056	0
980.7	5.008	0
980.8	4.960	0
980.9	4.902	0
981.0	4.858	0
981.1	4.807	0
981.2	4.766	0
981.3	4.721	0
981.4	4.677	0
981.5	4.636	0
981.6	4.595	0
981.7	4.557	0
981.8	4.516	0
981.9	4.472	0
982.0	4.445	0
982.1	4.410	0
982.2	4.373	0
982.3	4.342	0
982.4	4.311	0
982.5	4.281	0
982.6	4.250	0
982.7	4.219	0
982.8	4.192	0
982.9	4.161	0
983.0	4.134	0
983.1	4.106	0
983.2	4.076	0
983.3	4.045	0
983.4	4.018	0
983.5	3.990	0
983.6	3.956	0
983.7	3.929	0
983.8	3.902	0
983.9	3.867	0
984.0	3.840	0
984.1	3.809	0
984.2	3.779	0
984.3	3.744	0
984.4	3.707	0
984.5	3.680	0
984.6	3.642	0
984.7	3.615	0
984.8	3.577	0
984.9	3.543	0
985.0	3.512	0
985.1	3.478	0
985.2	3.441	0
985.3	3.406	0
985.4	3.376	0
985.5	3.338	0
985.6	3.307	0
985.7	3.273	0
985.8	3.239	0
985.9	3.201	0
986.0	3.171	0
986.1	3.137	0
986.2	3.106	0
986.3	3.072	0
986.4	3.041	0
986.5	3.010	0
986.6	2.976	0
986.7	2.942	0
986.8	2.911	0
986.9	2.880	0
987.0	2.850	0
987.1	2.822	0
987.2	2.795	0
987.3	2.764	0
987.4	2.737	0
987.5	2.710	0
987.6	2.682	0
987.7	2.655	0
987.8	2.631	0
987.9	2.604	0
988.0	2.580	0
988.1	2.559	0
988.2	2.532	0
988.3	2.512	0
988.4	2.484	0
988.5	2.464	0
988.6	2.443	0
988.7	2.419	0
988.8	2.402	0
988.9	2.382	0
989.0	2.361	0
989.1	2.344	0
989.2	2.320	0
989.3	2.307	0
989.4	2.286	0
989.5	2.266	0
989.6	2.249	0
989.7	2.235	0
989.8	2.214	0
989.9	2.197	0
990.0	2.180	0
990.1	2.163	0
990.2	2.146	0
990.3	2.132	0
990.4	2.115	0
990.5	2.102	0
990.6	2.085	0
990.7	2.068	0
990.8	2.057	0
990.9	2.040	0
991.0	2.027	0
991.1	2.010	0
991.2	1.999	0
991.3	1.982	0
991.4	1.972	0
991.5	1.955	0
991.6	1.945	0
991.7	1.931	0
991.8	1.914	0
991.9	1.904	0
992.0	1.890	0
992.1	1.876	0
992.2	1.866	0
992.3	1.856	0
992.4	1.842	0
992.5	1.828	0
992.6	1.815	0
992.7	1.805	0
992.8	1.798	0
992.9	1.781	0
993.0	1.770	0
993.1	1.757	0
993.2	1.747	0
993.3	1.733	0
993.4	1.723	0
993.5	1.716	0
993.6	1.702	0
993.7	1.692	0
993.8	1.682	0
993.9	1.671	0
994.0	1.658	0
994.1	1.647	0
994.2	1.641	0
994.3	1.627	0
994.4	1.617	0
994.5	1.610	0
994.6	1.600	0
994.7	1.589	0
994.8	1.576	0
994.9	1.569	0
995.0	1.562	0
995.1	1.548	0
995.2	1.542	0
995.3	1.531	0
995.4	1.521	0
995.5	1.514	0
995.6	1.501	0
995.7	1.490	0
995.8	1.487	0
995.9	1.473	0
996.0	1.466	0
996.1	1.449	0
996.2	1.443	0
996.3	1.432	0
996.4	1.429	0
996.5	1.415	0
996.6	1.405	0
996.7	1.395	0
996.8	1.388	0
996.9	1.374	0
997.0	1.371	0
997.1	1.354	0
997.2	1.354	0
997.3	1.347	0
997.4	1.330	0
997.5	1.320	0
997.6	1.313	0
997.7	1.306	0
997.8	1.296	0
997.9	1.285	0
998.0	1.279	0
998.1	1.268	0
998.2	1.262	0
998.3	1.248	0
998.4	1.244	0
998.5	1.238	0
998.6	1.221	0
998.7	1.214	0
998.8	1.207	0
998.9	1.203	0
999.0	1.190	0
999.1	1.176	0
999.2	1.176	0
999.3	1.169	0
999.4	1.159	0
999.5	1.149	0
999.6	1.135	0
999.7	1.132	0
999.8	1.135	0
999.9	1.122	0
1000.0	1.108	0
1000.1	1.098	0
1000.2	1.094	0
1000.3	1.091	0
1000.4	1.081	0
1000.5	1.077	0
1000.6	1.070	0
1000.7	1.057	0
1000.8	1.050	0
1000.9	1.036	0
1001.0	1.040	0
1001.1	1.026	0
1001.2	1.019	0
1001.3	1.016	0
1001.4	1.005	0
1001.5	0.999	0
1001.6	0.988	0
1001.7	0.988	0
1001.8	0.971	0
1001.9	0.981	0
1002.0	0.975	0
1002.1	0.954	0
1002.2	0.958	0
1002.3	0.927	0
1002.4	0.930	0
1002.5	0.944	0
1002.6	0.930	0
1002.7	0.927	0
1002.8	0.927	0
1002.9	0.917	0
1003.0	0.886	0
1003.1	0.889	0
1003.2	0.869	0
1003.3	0.876	0
1003.4	0.893	0
1003.5	0.879	0
1003.6	0.852	0
1003.7	0.862	0
1003.8	0.845	0
1003.9	0.852	0
1004.0	0.852	0
1004.1	0.828	0
1004.2	0.828	0
1004.3	0.811	0
1004.4	0.814	0
1004.5	0.787	0
1004.6	0.794	0
1004.7	0.794	0
1004.8	0.794	0
1004.9	0.777	0
1005.0	0.760	0
1005.1	0.770	0
1005.2	0.766	0
1005.3	0.746	0
1005.4	0.746	0
1005.5	0.756	0
1005.6	0.739	0
1005.7	0.729	0
1005.8	0.725	0
1005.9	0.719	0
1006.0	0.701	0
1006.1	0.715	0
1006.2	0.715	0
1006.3	0.688	0
1006.4	0.701	0
1006.5	0.698	0
1006.6	0.695	0
1006.7	0.674	0
1006.8	0.664	0
1006.9	0.671	0
1007.0	0.678	0
1007.1	0.660	0
1007.2	0.647	0
1007.3	0.650	0
1007.4	0.626	0
1007.5	0.637	0
1007.6	0.643	0
1007.7	0.633	0
1007.8	0.626	0
1007.9	0.623	0
1008.0	0.609	0
1008.1	0.606	0
1008.2	0.578	0
1008.3	0.578	0
1008.4	0.613	0
1008.5	0.572	0
1008.6	0.558	0
1008.7	0.568	0
1008.8	0.575	0
1008.9	0.572	0
1009.0	0.555	0
1009.1	0.555	0
1009.2	0.534	0
1009.3	0.534	0
1009.4	0.527	0
1009.5	0.531	0
1009.6	0.548	0
1009.7	0.517	0
1009.8	0.514	0
1009.9	0.534	0
1010.0	0.507	0];

%% Coefficients at signal wavelength
% Wavelength (nm)	alpha (dB/m)	g*  (dB/m)
param.signal_coeff = [1465.00	2.235	0.500
1465.25	2.255	0.508
1465.50	2.272	0.514
1465.75	2.286	0.520
1466.00	2.307	0.528
1466.25	2.326	0.536
1466.50	2.348	0.544
1466.75	2.369	0.552
1467.00	2.388	0.559
1467.25	2.400	0.566
1467.50	2.431	0.576
1467.75	2.451	0.584
1468.00	2.470	0.592
1468.25	2.492	0.601
1468.50	2.510	0.609
1468.75	2.525	0.616
1469.00	2.541	0.623
1469.25	2.562	0.632
1469.50	2.580	0.640
1469.75	2.599	0.648
1470.00	2.620	0.657
1470.25	2.638	0.665
1470.50	2.653	0.673
1470.75	2.671	0.682
1471.00	2.689	0.690
1471.25	2.706	0.698
1471.50	2.725	0.707
1471.75	2.748	0.717
1472.00	2.765	0.726
1472.25	2.780	0.734
1472.50	2.795	0.742
1472.75	2.814	0.751
1473.00	2.831	0.760
1473.25	2.852	0.770
1473.50	2.867	0.779
1473.75	2.888	0.789
1474.00	2.902	0.797
1474.25	2.919	0.806
1474.50	2.934	0.815
1474.75	2.951	0.824
1475.00	2.967	0.833
1475.25	2.985	0.843
1475.50	3.003	0.853
1475.75	3.022	0.863
1476.00	3.037	0.873
1476.25	3.051	0.882
1476.50	3.065	0.891
1476.75	3.082	0.901
1477.00	3.099	0.911
1477.25	3.114	0.920
1477.50	3.132	0.931
1477.75	3.148	0.941
1478.00	3.163	0.951
1478.25	3.175	0.960
1478.50	3.190	0.969
1478.75	3.203	0.979
1479.00	3.218	0.989
1479.25	3.231	0.999
1479.50	3.247	1.009
1479.75	3.263	1.020
1480.00	3.278	1.030
1480.25	3.290	1.040
1480.50	3.303	1.050
1480.75	3.316	1.060
1481.00	3.327	1.069
1481.25	3.338	1.079
1481.50	3.352	1.090
1481.75	3.369	1.101
1482.00	3.381	1.111
1482.25	3.393	1.122
1482.50	3.405	1.132
1482.75	3.417	1.142
1483.00	3.428	1.152
1483.25	3.437	1.162
1483.50	3.448	1.172
1483.75	3.461	1.183
1484.00	3.473	1.194
1484.25	3.484	1.204
1484.50	3.493	1.214
1484.75	3.506	1.225
1485.00	3.519	1.237
1485.25	3.528	1.247
1485.50	3.538	1.257
1485.75	3.547	1.268
1486.00	3.558	1.278
1486.25	3.567	1.289
1486.50	3.576	1.299
1486.75	3.584	1.310
1487.00	3.593	1.320
1487.25	3.601	1.330
1487.50	3.612	1.342
1487.75	3.620	1.353
1488.00	3.629	1.363
1488.25	3.635	1.373
1488.50	3.641	1.383
1488.75	3.649	1.394
1489.00	3.657	1.405
1489.25	3.667	1.416
1489.50	3.678	1.428
1489.75	3.684	1.439
1490.00	3.690	1.449
1490.25	3.695	1.459
1490.50	3.701	1.469
1490.75	3.705	1.479
1491.00	3.708	1.489
1491.25	3.714	1.499
1491.50	3.719	1.509
1491.75	3.725	1.520
1492.00	3.734	1.532
1492.25	3.742	1.544
1492.50	3.748	1.555
1492.75	3.752	1.565
1493.00	3.761	1.578
1493.25	3.767	1.589
1493.50	3.772	1.600
1493.75	3.776	1.611
1494.00	3.780	1.621
1494.25	3.786	1.633
1494.50	3.790	1.643
1494.75	3.793	1.654
1495.00	3.797	1.665
1495.25	3.805	1.677
1495.50	3.814	1.691
1495.75	3.819	1.702
1496.00	3.823	1.713
1496.25	3.826	1.724
1496.50	3.828	1.734
1496.75	3.831	1.745
1497.00	3.836	1.757
1497.25	3.838	1.768
1497.50	3.842	1.779
1497.75	3.846	1.791
1498.00	3.849	1.802
1498.25	3.853	1.814
1498.50	3.857	1.826
1498.75	3.864	1.839
1499.00	3.870	1.852
1499.25	3.874	1.864
1499.50	3.877	1.876
1499.75	3.883	1.889
1500.00	3.887	1.901
1500.25	3.890	1.913
1500.50	3.895	1.926
1500.75	3.900	1.939
1501.00	3.902	1.950
1501.25	3.907	1.964
1501.50	3.911	1.976
1501.75	3.916	1.990
1502.00	3.920	2.003
1502.25	3.924	2.015
1502.50	3.928	2.029
1502.75	3.936	2.044
1503.00	3.942	2.058
1503.25	3.947	2.072
1503.50	3.954	2.087
1503.75	3.962	2.103
1504.00	3.966	2.116
1504.25	3.971	2.130
1504.50	3.979	2.146
1504.75	3.991	2.164
1505.00	4.000	2.181
1505.25	4.008	2.198
1505.50	4.017	2.214
1505.75	4.024	2.230
1506.00	4.030	2.245
1506.25	4.035	2.261
1506.50	4.042	2.277
1506.75	4.053	2.295
1507.00	4.062	2.313
1507.25	4.072	2.331
1507.50	4.084	2.351
1507.75	4.098	2.371
1508.00	4.107	2.389
1508.25	4.119	2.409
1508.50	4.133	2.431
1508.75	4.147	2.452
1509.00	4.166	2.476
1509.25	4.184	2.501
1509.50	4.202	2.525
1509.75	4.213	2.545
1510.00	4.226	2.567
1510.25	4.243	2.592
1510.50	4.260	2.616
1510.75	4.277	2.640
1511.00	4.296	2.666
1511.25	4.314	2.692
1511.50	4.332	2.718
1511.75	4.348	2.742
1512.00	4.361	2.766
1512.25	4.380	2.792
1512.50	4.401	2.821
1512.75	4.421	2.849
1513.00	4.442	2.878
1513.25	4.465	2.908
1513.50	4.488	2.939
1513.75	4.509	2.969
1514.00	4.534	3.001
1514.25	4.562	3.036
1514.50	4.587	3.069
1514.75	4.607	3.099
1515.00	4.628	3.129
1515.25	4.657	3.166
1515.50	4.690	3.205
1515.75	4.718	3.242
1516.00	4.742	3.276
1516.25	4.766	3.310
1516.50	4.802	3.353
1516.75	4.841	3.398
1517.00	4.876	3.441
1517.25	4.909	3.483
1517.50	4.946	3.528
1517.75	4.988	3.577
1518.00	5.033	3.628
1518.25	5.077	3.679
1518.50	5.121	3.731
1518.75	5.159	3.779
1519.00	5.210	3.837
1519.25	5.274	3.905
1519.50	5.325	3.964
1519.75	5.382	4.027
1520.00	5.443	4.095
1520.25	5.511	4.168
1520.50	5.581	4.243
1520.75	5.649	4.318
1521.00	5.722	4.397
1521.25	5.798	4.479
1521.50	5.879	4.566
1521.75	5.961	4.654
1522.00	6.044	4.744
1522.25	6.127	4.834
1522.50	6.214	4.929
1522.75	6.300	5.024
1523.00	6.392	5.124
1523.25	6.483	5.225
1523.50	6.574	5.326
1523.75	6.664	5.428
1524.00	6.755	5.531
1524.25	6.844	5.634
1524.50	6.928	5.733
1524.75	7.012	5.833
1525.00	7.102	5.939
1525.25	7.185	6.041
1525.50	7.257	6.133
1525.75	7.325	6.223
1526.00	7.396	6.317
1526.25	7.460	6.405
1526.50	7.522	6.492
1526.75	7.576	6.574
1527.00	7.620	6.646
1527.25	7.662	6.719
1527.50	7.700	6.788
1527.75	7.729	6.849
1528.00	7.749	6.903
1528.25	7.765	6.954
1528.50	7.774	6.998
1528.75	7.777	7.038
1529.00	7.778	7.075
1529.25	7.773	7.109
1529.50	7.757	7.131
1529.75	7.733	7.147
1530.00	7.706	7.159
1530.25	7.676	7.168
1530.50	7.635	7.168
1530.75	7.586	7.159
1531.00	7.533	7.146
1531.25	7.478	7.132
1531.50	7.414	7.108
1531.75	7.343	7.076
1532.00	7.264	7.037
1532.25	7.180	6.992
1532.50	7.092	6.942
1532.75	6.997	6.885
1533.00	6.896	6.822
1533.25	6.790	6.752
1533.50	6.682	6.679
1533.75	6.566	6.597
1534.00	6.445	6.510
1534.25	6.323	6.420
1534.50	6.198	6.326
1534.75	6.075	6.233
1535.00	5.958	6.145
1535.25	5.842	6.057
1535.50	5.727	5.968
1535.75	5.610	5.877
1536.00	5.498	5.789
1536.25	5.393	5.708
1536.50	5.300	5.639
1536.75	5.212	5.575
1537.00	5.129	5.514
1537.25	5.051	5.459
1537.50	4.981	5.411
1537.75	4.917	5.369
1538.00	4.859	5.333
1538.25	4.804	5.301
1538.50	4.753	5.272
1538.75	4.710	5.251
1539.00	4.670	5.234
1539.25	4.638	5.225
1539.50	4.604	5.214
1539.75	4.570	5.202
1540.00	4.542	5.197
1540.25	4.517	5.195
1540.50	4.494	5.195
1540.75	4.470	5.194
1541.00	4.444	5.191
1541.25	4.421	5.191
1541.50	4.398	5.191
1541.75	4.375	5.190
1542.00	4.352	5.189
1542.25	4.326	5.186
1542.50	4.301	5.181
1542.75	4.281	5.185
1543.00	4.260	5.185
1543.25	4.235	5.181
1543.50	4.208	5.175
1543.75	4.181	5.169
1544.00	4.152	5.159
1544.25	4.122	5.148
1544.50	4.094	5.140
1544.75	4.067	5.132
1545.00	4.038	5.122
1545.25	4.005	5.106
1545.50	3.973	5.092
1545.75	3.944	5.081
1546.00	3.918	5.073
1546.25	3.888	5.060
1546.50	3.857	5.046
1546.75	3.829	5.034
1547.00	3.799	5.021
1547.25	3.767	5.005
1547.50	3.741	4.995
1547.75	3.716	4.987
1548.00	3.684	4.970
1548.25	3.656	4.957
1548.50	3.628	4.944
1548.75	3.598	4.929
1549.00	3.570	4.915
1549.25	3.542	4.902
1549.50	3.516	4.891
1549.75	3.490	4.879
1550.00	3.462	4.865
1550.25	3.433	4.849
1550.50	3.407	4.837
1550.75	3.383	4.828
1551.00	3.360	4.819
1551.25	3.338	4.812
1551.50	3.316	4.805
1551.75	3.292	4.795
1552.00	3.270	4.786
1552.25	3.246	4.776
1552.50	3.223	4.767
1552.75	3.201	4.759
1553.00	3.178	4.747
1553.25	3.153	4.735
1553.50	3.131	4.726
1553.75	3.114	4.723
1554.00	3.094	4.717
1554.25	3.068	4.702
1554.50	3.046	4.691
1554.75	3.028	4.687
1555.00	3.008	4.680
1555.25	2.988	4.673
1555.50	2.970	4.668
1555.75	2.947	4.655
1556.00	2.924	4.643
1556.25	2.905	4.637
1556.50	2.884	4.626
1556.75	2.860	4.611
1557.00	2.838	4.598
1557.25	2.819	4.591
1557.50	2.796	4.577
1557.75	2.774	4.563
1558.00	2.749	4.545
1558.25	2.726	4.531
1558.50	2.706	4.520
1558.75	2.685	4.508
1559.00	2.660	4.488
1559.25	2.633	4.465
1559.50	2.607	4.443
1559.75	2.578	4.415
1560.00	2.551	4.391
1560.25	2.521	4.363
1560.50	2.493	4.336
1560.75	2.466	4.310
1561.00	2.439	4.285
1561.25	2.413	4.261
1561.50	2.387	4.236
1561.75	2.359	4.207
1562.00	2.331	4.177
1562.25	2.302	4.146
1562.50	2.272	4.113
1562.75	2.242	4.079
1563.00	2.209	4.040
1563.25	2.178	4.004
1563.50	2.147	3.966
1563.75	2.116	3.929
1564.00	2.089	3.899
1564.25	2.061	3.865
1564.50	2.032	3.830
1564.75	2.004	3.795
1565.00	1.975	3.759
1565.25	1.943	3.717
1565.50	1.910	3.673
1565.75	1.879	3.632
1566.00	1.850	3.594
1566.25	1.824	3.560
1566.50	1.797	3.525
1566.75	1.770	3.489
1567.00	1.744	3.455
1567.25	1.716	3.418
1567.50	1.687	3.376
1567.75	1.663	3.346
1568.00	1.632	3.299
1568.25	1.605	3.260
1568.50	1.577	3.219
1568.75	1.549	3.179
1569.00	1.525	3.144
1569.25	1.504	3.116
1569.50	1.484	3.092
1569.75	1.458	3.051
1570.00	1.427	3.001];
% 
param.pump_absorption_coeff_fun = @(x) spline(param.pump_coeff(:, 1), param.pump_coeff(:, 2), x);
param.pump_gain_coeff_fun = @(x) zeros(size(x));
%
param.absorption_coeff_fun = @(x) spline(param.signal_coeff(:, 1), param.signal_coeff(:, 2), x);
param.gain_coeff_fun = @(x) spline(param.signal_coeff(:, 1), param.signal_coeff(:, 3), x);

save('data_corning_high_na', '-struct', 'param')