%% Corning EDF # 123-6239-201.2 (corning_new)
clear
param.type = 'corning_new';
param.core_radius = 1.19e-6; % m
param.Er_radius	= 0.98e-6; % m
param.Er_ion_ensity	= 6.68E+18; % ions/cm^3a
param.background_loss = 5.63; % dB/km
param.NA = 0.23;
param.metastable_lifetime = 10e-3; % s
param.saturation_factor	= 3.50E+15; % 1/s-m

%% Coefficients at pump wavelength
% Wavelength (nm)	alpha (dB/m)	g*  (dB/m)
param.pump_coeff = [940.0	0.101	0
940.1	0.111	0
940.2	0.111	0
940.3	0.104	0
940.4	0.108	0
940.5	0.118	0
940.6	0.111	0
940.7	0.108	0
940.8	0.114	0
940.9	0.118	0
941.0	0.111	0
941.1	0.114	0
941.2	0.125	0
941.3	0.118	0
941.4	0.114	0
941.5	0.118	0
941.6	0.125	0
941.7	0.114	0
941.8	0.111	0
941.9	0.118	0
942.0	0.121	0
942.1	0.118	0
942.2	0.121	0
942.3	0.125	0
942.4	0.121	0
942.5	0.118	0
942.6	0.128	0
942.7	0.128	0
942.8	0.121	0
942.9	0.121	0
943.0	0.131	0
943.1	0.131	0
943.2	0.125	0
943.3	0.131	0
943.4	0.135	0
943.5	0.131	0
943.6	0.135	0
943.7	0.138	0
943.8	0.141	0
943.9	0.135	0
944.0	0.138	0
944.1	0.141	0
944.2	0.135	0
944.3	0.138	0
944.4	0.145	0
944.5	0.141	0
944.6	0.135	0
944.7	0.141	0
944.8	0.148	0
944.9	0.141	0
945.0	0.148	0
945.1	0.155	0
945.2	0.151	0
945.3	0.148	0
945.4	0.155	0
945.5	0.155	0
945.6	0.155	0
945.7	0.158	0
945.8	0.158	0
945.9	0.158	0
946.0	0.161	0
946.1	0.168	0
946.2	0.168	0
946.3	0.165	0
946.4	0.168	0
946.5	0.175	0
946.6	0.172	0
946.7	0.175	0
946.8	0.178	0
946.9	0.175	0
947.0	0.178	0
947.1	0.182	0
947.2	0.182	0
947.3	0.182	0
947.4	0.188	0
947.5	0.192	0
947.6	0.192	0
947.7	0.195	0
947.8	0.195	0
947.9	0.202	0
948.0	0.205	0
948.1	0.205	0
948.2	0.205	0
948.3	0.205	0
948.4	0.212	0
948.5	0.215	0
948.6	0.218	0
948.7	0.222	0
948.8	0.222	0
948.9	0.225	0
949.0	0.229	0
949.1	0.232	0
949.2	0.232	0
949.3	0.235	0
949.4	0.245	0
949.5	0.242	0
949.6	0.245	0
949.7	0.252	0
949.8	0.249	0
949.9	0.252	0
950.0	0.262	0
950.1	0.265	0
950.2	0.262	0
950.3	0.272	0
950.4	0.279	0
950.5	0.272	0
950.6	0.282	0
950.7	0.292	0
950.8	0.289	0
950.9	0.292	0
951.0	0.302	0
951.1	0.302	0
951.2	0.302	0
951.3	0.316	0
951.4	0.316	0
951.5	0.316	0
951.6	0.326	0
951.7	0.336	0
951.8	0.333	0
951.9	0.339	0
952.0	0.356	0
952.1	0.353	0
952.2	0.356	0
952.3	0.369	0
952.4	0.373	0
952.5	0.373	0
952.6	0.386	0
952.7	0.393	0
952.8	0.393	0
952.9	0.410	0
953.0	0.413	0
953.1	0.413	0
953.2	0.423	0
953.3	0.433	0
953.4	0.433	0
953.5	0.440	0
953.6	0.453	0
953.7	0.453	0
953.8	0.460	0
953.9	0.480	0
954.0	0.480	0
954.1	0.484	0
954.2	0.500	0
954.3	0.507	0
954.4	0.507	0
954.5	0.524	0
954.6	0.534	0
954.7	0.537	0
954.8	0.551	0
954.9	0.561	0
955.0	0.561	0
955.1	0.578	0
955.2	0.594	0
955.3	0.598	0
955.4	0.604	0
955.5	0.625	0
955.6	0.625	0
955.7	0.638	0
955.8	0.651	0
955.9	0.658	0
956.0	0.668	0
956.1	0.685	0
956.2	0.692	0
956.3	0.698	0
956.4	0.715	0
956.5	0.725	0
956.6	0.735	0
956.7	0.752	0
956.8	0.765	0
956.9	0.772	0
957.0	0.789	0
957.1	0.802	0
957.2	0.809	0
957.3	0.826	0
957.4	0.843	0
957.5	0.849	0
957.6	0.866	0
957.7	0.883	0
957.8	0.893	0
957.9	0.906	0
958.0	0.923	0
958.1	0.933	0
958.2	0.950	0
958.3	0.967	0
958.4	0.977	0
958.5	0.994	0
958.6	1.014	0
958.7	1.024	0
958.8	1.044	0
958.9	1.057	0
959.0	1.074	0
959.1	1.091	0
959.2	1.104	0
959.3	1.121	0
959.4	1.138	0
959.5	1.155	0
959.6	1.168	0
959.7	1.185	0
959.8	1.202	0
959.9	1.218	0
960.0	1.235	0
960.1	1.252	0
960.2	1.265	0
960.3	1.286	0
960.4	1.302	0
960.5	1.319	0
960.6	1.339	0
960.7	1.356	0
960.8	1.373	0
960.9	1.393	0
961.0	1.410	0
961.1	1.430	0
961.2	1.447	0
961.3	1.463	0
961.4	1.484	0
961.5	1.500	0
961.6	1.520	0
961.7	1.541	0
961.8	1.561	0
961.9	1.574	0
962.0	1.594	0
962.1	1.618	0
962.2	1.631	0
962.3	1.651	0
962.4	1.672	0
962.5	1.692	0
962.6	1.712	0
962.7	1.732	0
962.8	1.745	0
962.9	1.765	0
963.0	1.792	0
963.1	1.806	0
963.2	1.829	0
963.3	1.846	0
963.4	1.859	0
963.5	1.886	0
963.6	1.900	0
963.7	1.920	0
963.8	1.940	0
963.9	1.953	0
964.0	1.974	0
964.1	1.997	0
964.2	2.010	0
964.3	2.027	0
964.4	2.051	0
964.5	2.064	0
964.6	2.084	0
964.7	2.104	0
964.8	2.121	0
964.9	2.138	0
965.0	2.161	0
965.1	2.175	0
965.2	2.198	0
965.3	2.218	0
965.4	2.229	0
965.5	2.255	0
965.6	2.276	0
965.7	2.289	0
965.8	2.316	0
965.9	2.329	0
966.0	2.343	0
966.1	2.366	0
966.2	2.380	0
966.3	2.393	0
966.4	2.416	0
966.5	2.430	0
966.6	2.443	0
966.7	2.467	0
966.8	2.480	0
966.9	2.497	0
967.0	2.517	0
967.1	2.527	0
967.2	2.547	0
967.3	2.567	0
967.4	2.574	0
967.5	2.598	0
967.6	2.618	0
967.7	2.628	0
967.8	2.645	0
967.9	2.665	0
968.0	2.675	0
968.1	2.698	0
968.2	2.708	0
968.3	2.725	0
968.4	2.742	0
968.5	2.755	0
968.6	2.769	0
968.7	2.786	0
968.8	2.802	0
968.9	2.819	0
969.0	2.836	0
969.1	2.846	0
969.2	2.866	0
969.3	2.886	0
969.4	2.900	0
969.5	2.920	0
969.6	2.930	0
969.7	2.950	0
969.8	2.967	0
969.9	2.984	0
970.0	2.997	0
970.1	3.020	0
970.2	3.027	0
970.3	3.047	0
970.4	3.061	0
970.5	3.074	0
970.6	3.094	0
970.7	3.104	0
970.8	3.121	0
970.9	3.141	0
971.0	3.151	0
971.1	3.172	0
971.2	3.188	0
971.3	3.198	0
971.4	3.222	0
971.5	3.242	0
971.6	3.255	0
971.7	3.276	0
971.8	3.292	0
971.9	3.309	0
972.0	3.329	0
972.1	3.346	0
972.2	3.363	0
972.3	3.383	0
972.4	3.400	0
972.5	3.420	0
972.6	3.440	0
972.7	3.453	0
972.8	3.480	0
972.9	3.500	0
973.0	3.520	0
973.1	3.544	0
973.2	3.564	0
973.3	3.588	0
973.4	3.614	0
973.5	3.635	0
973.6	3.661	0
973.7	3.685	0
973.8	3.712	0
973.9	3.739	0
974.0	3.762	0
974.1	3.786	0
974.2	3.809	0
974.3	3.836	0
974.4	3.859	0
974.5	3.886	0
974.6	3.906	0
974.7	3.937	0
974.8	3.960	0
974.9	3.984	0
975.0	4.010	0
975.1	4.037	0
975.2	4.067	0
975.3	4.091	0
975.4	4.118	0
975.5	4.141	0
975.6	4.172	0
975.7	4.198	0
975.8	4.225	0
975.9	4.245	0
976.0	4.269	0
976.1	4.296	0
976.2	4.319	0
976.3	4.339	0
976.4	4.363	0
976.5	4.383	0
976.6	4.403	0
976.7	4.420	0
976.8	4.440	0
976.9	4.460	0
977.0	4.477	0
977.1	4.494	0
977.2	4.507	0
977.3	4.524	0
977.4	4.537	0
977.5	4.557	0
977.6	4.567	0
977.7	4.578	0
977.8	4.591	0
977.9	4.598	0
978.0	4.604	0
978.1	4.608	0
978.2	4.608	0
978.3	4.611	0
978.4	4.604	0
978.5	4.601	0
978.6	4.588	0
978.7	4.584	0
978.8	4.567	0
978.9	4.554	0
979.0	4.537	0
979.1	4.524	0
979.2	4.504	0
979.3	4.480	0
979.4	4.457	0
979.5	4.433	0
979.6	4.403	0
979.7	4.376	0
979.8	4.343	0
979.9	4.309	0
980.0	4.272	0
980.1	4.235	0
980.2	4.198	0
980.3	4.161	0
980.4	4.118	0
980.5	4.081	0
980.6	4.037	0
980.7	4.000	0
980.8	3.957	0
980.9	3.923	0
981.0	3.883	0
981.1	3.843	0
981.2	3.812	0
981.3	3.772	0
981.4	3.742	0
981.5	3.708	0
981.6	3.675	0
981.7	3.645	0
981.8	3.614	0
981.9	3.584	0
982.0	3.554	0
982.1	3.527	0
982.2	3.500	0
982.3	3.470	0
982.4	3.447	0
982.5	3.420	0
982.6	3.396	0
982.7	3.373	0
982.8	3.349	0
982.9	3.326	0
983.0	3.302	0
983.1	3.279	0
983.2	3.259	0
983.3	3.232	0
983.4	3.212	0
983.5	3.192	0
983.6	3.165	0
983.7	3.141	0
983.8	3.118	0
983.9	3.091	0
984.0	3.067	0
984.1	3.037	0
984.2	3.010	0
984.3	2.987	0
984.4	2.963	0
984.5	2.930	0
984.6	2.906	0
984.7	2.880	0
984.8	2.849	0
984.9	2.829	0
985.0	2.796	0
985.1	2.772	0
985.2	2.745	0
985.3	2.712	0
985.4	2.688	0
985.5	2.658	0
985.6	2.635	0
985.7	2.608	0
985.8	2.574	0
985.9	2.554	0
986.0	2.520	0
986.1	2.497	0
986.2	2.467	0
986.3	2.440	0
986.4	2.413	0
986.5	2.383	0
986.6	2.363	0
986.7	2.336	0
986.8	2.312	0
986.9	2.289	0
987.0	2.259	0
987.1	2.242	0
987.2	2.215	0
987.3	2.192	0
987.4	2.168	0
987.5	2.141	0
987.6	2.125	0
987.7	2.098	0
987.8	2.081	0
987.9	2.054	0
988.0	2.037	0
988.1	2.017	0
988.2	1.994	0
988.3	1.980	0
988.4	1.957	0
988.5	1.943	0
988.6	1.927	0
988.7	1.903	0
988.8	1.893	0
988.9	1.869	0
989.0	1.859	0
989.1	1.839	0
989.2	1.826	0
989.3	1.812	0
989.4	1.796	0
989.5	1.786	0
989.6	1.765	0
989.7	1.755	0
989.8	1.742	0
989.9	1.722	0
990.0	1.715	0
990.1	1.692	0
990.2	1.685	0
990.3	1.668	0
990.4	1.658	0
990.5	1.648	0
990.6	1.631	0
990.7	1.625	0
990.8	1.608	0
990.9	1.601	0
991.0	1.584	0
991.1	1.578	0
991.2	1.564	0
991.3	1.551	0
991.4	1.544	0
991.5	1.527	0
991.6	1.520	0
991.7	1.507	0
991.8	1.500	0
991.9	1.490	0
992.0	1.477	0
992.1	1.470	0
992.2	1.457	0
992.3	1.450	0
992.4	1.440	0
992.5	1.427	0
992.6	1.423	0
992.7	1.410	0
992.8	1.400	0
992.9	1.386	0
993.0	1.386	0
993.1	1.369	0
993.2	1.363	0
993.3	1.356	0
993.4	1.343	0
993.5	1.336	0
993.6	1.326	0
993.7	1.323	0
993.8	1.309	0
993.9	1.302	0
994.0	1.292	0
994.1	1.286	0
994.2	1.279	0
994.3	1.269	0
994.4	1.265	0
994.5	1.252	0
994.6	1.249	0
994.7	1.235	0
994.8	1.232	0
994.9	1.222	0
995.0	1.215	0
995.1	1.212	0
995.2	1.198	0
995.3	1.192	0
995.4	1.182	0
995.5	1.178	0
995.6	1.168	0
995.7	1.161	0
995.8	1.155	0
995.9	1.145	0
996.0	1.141	0
996.1	1.128	0
996.2	1.128	0
996.3	1.114	0
996.4	1.111	0
996.5	1.101	0
996.6	1.091	0
996.7	1.084	0
996.8	1.074	0
996.9	1.071	0
997.0	1.054	0
997.1	1.057	0
997.2	1.044	0
997.3	1.037	0
997.4	1.031	0
997.5	1.024	0
997.6	1.020	0
997.7	1.007	0
997.8	1.007	0
997.9	0.994	0
998.0	0.990	0
998.1	0.980	0
998.2	0.974	0
998.3	0.967	0
998.4	0.960	0
998.5	0.950	0
998.6	0.947	0
998.7	0.940	0
998.8	0.930	0
998.9	0.923	0
999.0	0.916	0
999.1	0.913	0
999.2	0.903	0
999.3	0.896	0
999.4	0.890	0
999.5	0.886	0
999.6	0.880	0
999.7	0.873	0
999.8	0.866	0
999.9	0.859	0
1000.0	0.853	0
1000.1	0.843	0
1000.2	0.843	0
1000.3	0.829	0
1000.4	0.829	0
1000.5	0.819	0
1000.6	0.816	0
1000.7	0.806	0
1000.8	0.799	0
1000.9	0.799	0
1001.0	0.786	0
1001.1	0.782	0
1001.2	0.769	0
1001.3	0.772	0
1001.4	0.765	0
1001.5	0.762	0
1001.6	0.749	0
1001.7	0.749	0
1001.8	0.742	0
1001.9	0.742	0
1002.0	0.729	0
1002.1	0.729	0
1002.2	0.718	0
1002.3	0.705	0
1002.4	0.708	0
1002.5	0.698	0
1002.6	0.698	0
1002.7	0.695	0
1002.8	0.698	0
1002.9	0.688	0
1003.0	0.682	0
1003.1	0.672	0
1003.2	0.665	0
1003.3	0.661	0
1003.4	0.655	0
1003.5	0.651	0
1003.6	0.641	0
1003.7	0.648	0
1003.8	0.641	0
1003.9	0.635	0
1004.0	0.625	0
1004.1	0.625	0
1004.2	0.621	0
1004.3	0.614	0
1004.4	0.604	0
1004.5	0.598	0
1004.6	0.601	0
1004.7	0.594	0
1004.8	0.591	0
1004.9	0.578	0
1005.0	0.578	0
1005.1	0.574	0
1005.2	0.581	0
1005.3	0.557	0
1005.4	0.554	0
1005.5	0.544	0
1005.6	0.554	0
1005.7	0.537	0
1005.8	0.534	0
1005.9	0.524	0
1006.0	0.527	0
1006.1	0.527	0
1006.2	0.520	0
1006.3	0.507	0
1006.4	0.504	0
1006.5	0.507	0
1006.6	0.507	0
1006.7	0.490	0
1006.8	0.487	0
1006.9	0.480	0
1007.0	0.484	0
1007.1	0.474	0
1007.2	0.470	0
1007.3	0.477	0
1007.4	0.453	0
1007.5	0.463	0
1007.6	0.457	0
1007.7	0.440	0
1007.8	0.437	0
1007.9	0.433	0
1008.0	0.433	0
1008.1	0.437	0
1008.2	0.423	0
1008.3	0.413	0
1008.4	0.427	0
1008.5	0.406	0
1008.6	0.403	0
1008.7	0.416	0
1008.8	0.413	0
1008.9	0.410	0
1009.0	0.393	0
1009.1	0.393	0
1009.2	0.396	0
1009.3	0.376	0
1009.4	0.363	0
1009.5	0.376	0
1009.6	0.376	0
1009.7	0.359	0
1009.8	0.369	0
1009.9	0.359	0
1010.0	0.346	0];

%% Coefficients at signal wavelength
% Wavelength (nm)	alpha (dB/m)	g*  (dB/m)
param.signal_coeff = [1465.00	2.290	0.516
                    1465.25	2.310	0.523
                    1465.50	2.331	0.531
                    1465.75	2.348	0.538
                    1466.00	2.365	0.545
                    1466.25	2.385	0.552
                    1466.50	2.405	0.560
                    1466.75	2.422	0.568
                    1467.00	2.441	0.575
                    1467.25	2.460	0.583
                    1467.50	2.487	0.593
                    1467.75	2.499	0.599
                    1468.00	2.518	0.607
                    1468.25	2.538	0.615
                    1468.50	2.559	0.624
                    1468.75	2.575	0.632
                    1469.00	2.593	0.639
                    1469.25	2.613	0.648
                    1469.50	2.631	0.656
                    1469.75	2.651	0.665
                    1470.00	2.667	0.673
                    1470.25	2.686	0.682
                    1470.50	2.709	0.691
                    1470.75	2.732	0.701
                    1471.00	2.747	0.709
                    1471.25	2.766	0.718
                    1471.50	2.782	0.726
                    1471.75	2.802	0.736
                    1472.00	2.824	0.746
                    1472.25	2.846	0.756
                    1472.50	2.867	0.766
                    1472.75	2.882	0.774
                    1473.00	2.901	0.783
                    1473.25	2.915	0.792
                    1473.50	2.931	0.800
                    1473.75	2.947	0.809
                    1474.00	2.964	0.819
                    1474.25	2.982	0.828
                    1474.50	3.000	0.838
                    1474.75	3.020	0.848
                    1475.00	3.036	0.858
                    1475.25	3.052	0.867
                    1475.50	3.068	0.877
                    1475.75	3.086	0.887
                    1476.00	3.102	0.897
                    1476.25	3.119	0.906
                    1476.50	3.138	0.917
                    1476.75	3.156	0.927
                    1477.00	3.171	0.937
                    1477.25	3.182	0.946
                    1477.50	3.199	0.956
                    1477.75	3.214	0.966
                    1478.00	3.233	0.977
                    1478.25	3.250	0.988
                    1478.50	3.265	0.998
                    1478.75	3.274	1.007
                    1479.00	3.281	1.014
                    1479.25	3.293	1.024
                    1479.50	3.312	1.035
                    1479.75	3.328	1.046
                    1480.00	3.341	1.056
                    1480.25	3.352	1.066
                    1480.50	3.368	1.077
                    1480.75	3.379	1.086
                    1481.00	3.391	1.097
                    1481.25	3.402	1.106
                    1481.50	3.415	1.116
                    1481.75	3.427	1.127
                    1482.00	3.439	1.137
                    1482.25	3.453	1.148
                    1482.50	3.467	1.159
                    1482.75	3.479	1.170
                    1483.00	3.489	1.180
                    1483.25	3.504	1.191
                    1483.50	3.516	1.202
                    1483.75	3.524	1.212
                    1484.00	3.534	1.222
                    1484.25	3.546	1.233
                    1484.50	3.554	1.242
                    1484.75	3.563	1.253
                    1485.00	3.574	1.263
                    1485.25	3.585	1.274
                    1485.50	3.595	1.285
                    1485.75	3.607	1.297
                    1486.00	3.617	1.307
                    1486.25	3.626	1.318
                    1486.50	3.635	1.328
                    1486.75	3.645	1.339
                    1487.00	3.653	1.350
                    1487.25	3.661	1.361
                    1487.50	3.669	1.371
                    1487.75	3.678	1.382
                    1488.00	3.687	1.393
                    1488.25	3.693	1.403
                    1488.50	3.699	1.413
                    1488.75	3.707	1.424
                    1489.00	3.717	1.436
                    1489.25	3.725	1.447
                    1489.50	3.732	1.458
                    1489.75	3.737	1.468
                    1490.00	3.745	1.479
                    1490.25	3.751	1.490
                    1490.50	3.754	1.499
                    1490.75	3.761	1.510
                    1491.00	3.768	1.521
                    1491.25	3.775	1.533
                    1491.50	3.778	1.542
                    1491.75	3.784	1.553
                    1492.00	3.790	1.564
                    1492.25	3.795	1.575
                    1492.50	3.800	1.586
                    1492.75	3.806	1.597
                    1493.00	3.812	1.609
                    1493.25	3.816	1.619
                    1493.50	3.821	1.630
                    1493.75	3.827	1.642
                    1494.00	3.830	1.652
                    1494.25	3.835	1.663
                    1494.50	3.839	1.674
                    1494.75	3.845	1.686
                    1495.00	3.848	1.697
                    1495.25	3.851	1.707
                    1495.50	3.855	1.719
                    1495.75	3.859	1.730
                    1496.00	3.864	1.742
                    1496.25	3.870	1.754
                    1496.50	3.876	1.766
                    1496.75	3.876	1.776
                    1497.00	3.886	1.790
                    1497.25	3.887	1.801
                    1497.50	3.893	1.813
                    1497.75	3.895	1.824
                    1498.00	3.899	1.836
                    1498.25	3.901	1.847
                    1498.50	3.908	1.861
                    1498.75	3.912	1.873
                    1499.00	3.914	1.884
                    1499.25	3.918	1.896
                    1499.50	3.920	1.908
                    1499.75	3.928	1.922
                    1500.00	3.929	1.933
                    1500.25	3.932	1.945
                    1500.50	3.939	1.959
                    1500.75	3.943	1.972
                    1501.00	3.946	1.984
                    1501.25	3.951	1.998
                    1501.50	3.955	2.010
                    1501.75	3.955	2.021
                    1502.00	3.962	2.036
                    1502.25	3.970	2.051
                    1502.50	3.981	2.068
                    1502.75	3.988	2.083
                    1503.00	3.994	2.098
                    1503.25	4.001	2.113
                    1503.50	4.003	2.125
                    1503.75	4.005	2.138
                    1504.00	4.017	2.156
                    1504.25	4.023	2.171
                    1504.50	4.027	2.185
                    1504.75	4.033	2.200
                    1505.00	4.044	2.218
                    1505.25	4.050	2.233
                    1505.50	4.052	2.247
                    1505.75	4.064	2.265
                    1506.00	4.071	2.282
                    1506.25	4.080	2.299
                    1506.50	4.090	2.317
                    1506.75	4.102	2.337
                    1507.00	4.115	2.357
                    1507.25	4.120	2.372
                    1507.50	4.130	2.391
                    1507.75	4.142	2.411
                    1508.00	4.154	2.431
                    1508.25	4.166	2.451
                    1508.50	4.180	2.473
                    1508.75	4.196	2.496
                    1509.00	4.213	2.519
                    1509.25	4.233	2.545
                    1509.50	4.249	2.568
                    1509.75	4.261	2.589
                    1510.00	4.272	2.610
                    1510.25	4.288	2.634
                    1510.50	4.308	2.661
                    1510.75	4.324	2.685
                    1511.00	4.340	2.709
                    1511.25	4.360	2.736
                    1511.50	4.378	2.762
                    1511.75	4.403	2.793
                    1512.00	4.418	2.818
                    1512.25	4.443	2.849
                    1512.50	4.463	2.878
                    1512.75	4.481	2.905
                    1513.00	4.503	2.935
                    1513.25	4.524	2.964
                    1513.50	4.546	2.995
                    1513.75	4.569	3.026
                    1514.00	4.590	3.056
                    1514.25	4.613	3.088
                    1514.50	4.637	3.121
                    1514.75	4.663	3.155
                    1515.00	4.689	3.189
                    1515.25	4.720	3.228
                    1515.50	4.748	3.264
                    1515.75	4.780	3.304
                    1516.00	4.807	3.340
                    1516.25	4.842	3.382
                    1516.50	4.873	3.422
                    1516.75	4.909	3.466
                    1517.00	4.944	3.509
                    1517.25	4.981	3.555
                    1517.50	5.021	3.602
                    1517.75	5.062	3.651
                    1518.00	5.106	3.702
                    1518.25	5.152	3.756
                    1518.50	5.202	3.813
                    1518.75	5.251	3.869
                    1519.00	5.303	3.928
                    1519.25	5.359	3.991
                    1519.50	5.419	4.057
                    1519.75	5.478	4.123
                    1520.00	5.540	4.192
                    1520.25	5.607	4.265
                    1520.50	5.680	4.344
                    1520.75	5.758	4.427
                    1521.00	5.836	4.511
                    1521.25	5.912	4.594
                    1521.50	5.995	4.683
                    1521.75	6.077	4.772
                    1522.00	6.163	4.866
                    1522.25	6.251	4.961
                    1522.50	6.340	5.059
                    1522.75	6.429	5.156
                    1523.00	6.519	5.257
                    1523.25	6.608	5.357
                    1523.50	6.704	5.463
                    1523.75	6.795	5.567
                    1524.00	6.883	5.669
                    1524.25	6.973	5.773
                    1524.50	7.062	5.878
                    1524.75	7.146	5.980
                    1525.00	7.225	6.078
                    1525.25	7.304	6.176
                    1525.50	7.380	6.273
                    1525.75	7.448	6.365
                    1526.00	7.511	6.453
                    1526.25	7.571	6.538
                    1526.50	7.629	6.623
                    1526.75	7.676	6.700
                    1527.00	7.718	6.771
                    1527.25	7.754	6.839
                    1527.50	7.782	6.900
                    1527.75	7.804	6.956
                    1528.00	7.817	7.004
                    1528.25	7.823	7.046
                    1528.50	7.832	7.092
                    1528.75	7.832	7.129
                    1529.00	7.828	7.163
                    1529.25	7.811	7.185
                    1529.50	7.791	7.204
                    1529.75	7.758	7.212
                    1530.00	7.724	7.218
                    1530.25	7.693	7.227
                    1530.50	7.652	7.226
                    1530.75	7.598	7.213
                    1531.00	7.531	7.187
                    1531.25	7.462	7.158
                    1531.50	7.398	7.134
                    1531.75	7.324	7.099
                    1532.00	7.246	7.060
                    1532.25	7.154	7.007
                    1532.50	7.059	6.951
                    1532.75	6.963	6.892
                    1533.00	6.872	6.838
                    1533.25	6.765	6.766
                    1533.50	6.648	6.684
                    1533.75	6.527	6.597
                    1534.00	6.413	6.516
                    1534.25	6.297	6.431
                    1534.50	6.177	6.341
                    1534.75	6.058	6.252
                    1535.00	5.944	6.166
                    1535.25	5.830	6.080
                    1535.50	5.721	5.997
                    1535.75	5.620	5.921
                    1536.00	5.518	5.845
                    1536.25	5.419	5.770
                    1536.50	5.326	5.700
                    1536.75	5.236	5.633
                    1537.00	5.156	5.576
                    1537.25	5.086	5.529
                    1537.50	5.023	5.489
                    1537.75	4.963	5.452
                    1538.00	4.908	5.419
                    1538.25	4.861	5.395
                    1538.50	4.817	5.374
                    1538.75	4.775	5.354
                    1539.00	4.736	5.338
                    1539.25	4.702	5.328
                    1539.50	4.667	5.316
                    1539.75	4.645	5.318
                    1540.00	4.617	5.313
                    1540.25	4.591	5.311
                    1540.50	4.567	5.311
                    1540.75	4.546	5.313
                    1541.00	4.516	5.306
                    1541.25	4.496	5.309
                    1541.50	4.475	5.313
                    1541.75	4.454	5.315
                    1542.00	4.430	5.313
                    1542.25	4.404	5.310
                    1542.50	4.381	5.309
                    1542.75	4.357	5.307
                    1543.00	4.332	5.304
                    1543.25	4.307	5.301
                    1543.50	4.280	5.295
                    1543.75	4.252	5.288
                    1544.00	4.223	5.278
                    1544.25	4.193	5.269
                    1544.50	4.165	5.260
                    1544.75	4.139	5.253
                    1545.00	4.110	5.244
                    1545.25	4.081	5.233
                    1545.50	4.051	5.222
                    1545.75	4.017	5.205
                    1546.00	3.984	5.189
                    1546.25	3.955	5.177
                    1546.50	3.921	5.160
                    1546.75	3.887	5.142
                    1547.00	3.853	5.123
                    1547.25	3.826	5.113
                    1547.50	3.795	5.097
                    1547.75	3.766	5.084
                    1548.00	3.739	5.074
                    1548.25	3.712	5.063
                    1548.50	3.681	5.046
                    1548.75	3.653	5.033
                    1549.00	3.625	5.020
                    1549.25	3.597	5.008
                    1549.50	3.572	4.998
                    1549.75	3.542	4.982
                    1550.00	3.516	4.970
                    1550.25	3.493	4.963
                    1550.50	3.468	4.953
                    1550.75	3.443	4.942
                    1551.00	3.421	4.936
                    1551.25	3.398	4.928
                    1551.50	3.377	4.923
                    1551.75	3.351	4.908
                    1552.00	3.325	4.896
                    1552.25	3.301	4.885
                    1552.50	3.282	4.882
                    1552.75	3.264	4.880
                    1553.00	3.250	4.884
                    1553.25	3.229	4.877
                    1553.50	3.213	4.877
                    1553.75	3.183	4.857
                    1554.00	3.159	4.845
                    1554.25	3.144	4.846
                    1554.50	3.128	4.846
                    1554.75	3.106	4.836
                    1555.00	3.084	4.827
                    1555.25	3.070	4.830
                    1555.50	3.052	4.826
                    1555.75	3.031	4.816
                    1556.00	3.003	4.797
                    1556.25	2.985	4.791
                    1556.50	2.963	4.780
                    1556.75	2.938	4.764
                    1557.00	2.914	4.749
                    1557.25	2.889	4.733
                    1557.50	2.869	4.724
                    1557.75	2.845	4.707
                    1558.00	2.823	4.695
                    1558.25	2.802	4.683
                    1558.50	2.777	4.665
                    1558.75	2.748	4.639
                    1559.00	2.724	4.622
                    1559.25	2.703	4.611
                    1559.50	2.681	4.596
                    1559.75	2.653	4.571
                    1560.00	2.624	4.544
                    1560.25	2.597	4.519
                    1560.50	2.571	4.497
                    1560.75	2.541	4.467
                    1561.00	2.514	4.442
                    1561.25	2.486	4.415
                    1561.50	2.457	4.385
                    1561.75	2.425	4.351
                    1562.00	2.396	4.321
                    1562.25	2.369	4.292
                    1562.50	2.333	4.249
                    1562.75	2.298	4.206
                    1563.00	2.268	4.172
                    1563.25	2.236	4.134
                    1563.50	2.207	4.101
                    1563.75	2.177	4.064
                    1564.00	2.151	4.037
                    1564.25	2.117	3.993
                    1564.50	2.089	3.960
                    1564.75	2.054	3.913
                    1565.00	2.026	3.879
                    1565.25	1.997	3.842
                    1565.50	1.969	3.809
                    1565.75	1.940	3.771
                    1566.00	1.910	3.731
                    1566.25	1.877	3.685
                    1566.50	1.850	3.651
                    1566.75	1.822	3.614
                    1567.00	1.797	3.582
                    1567.25	1.767	3.540
                    1567.50	1.737	3.497
                    1567.75	1.709	3.457
                    1568.00	1.684	3.423
                    1568.25	1.650	3.373
                    1568.50	1.625	3.337
                    1568.75	1.597	3.296
                    1569.00	1.575	3.266
                    1569.25	1.552	3.234
                    1569.50	1.524	3.194
                    1569.75	1.498	3.153
                    1570.00	1.474	3.118];
% 
param.pump_absorption_coeff_fun = @(x) spline(param.pump_coeff(:, 1), param.pump_coeff(:, 2), x);
param.pump_gain_coeff_fun = @(x) zeros(size(x));
%
param.absorption_coeff_fun = @(x) spline(param.signal_coeff(:, 1), param.signal_coeff(:, 2), x);
param.gain_coeff_fun = @(x) spline(param.signal_coeff(:, 1), param.signal_coeff(:, 3), x);

save('data_corning_new', '-struct', 'param')